ATF	1.0
8	2     
"AcquisitionMode=Episodic Stimulation"
"Comment="
"YTop=1000.02"
"YBottom=-1000.02"
"SyncTimeUnits=5"
"SweepStartTimesMS=0.000"
"SignalsExported=IN 0"
"Signals="	"IN 0"
"Time (s)"	"Trace #1 (mV)"
0	-73.822
1e-4	-73.8525
2e-4	-73.8525
3e-4	-73.8831
4e-4	-73.8525
5e-4	-73.822
6e-4	-73.822
7e-4	-73.761
8e-4	-73.761
9e-4	-73.7915
1e-3	-73.7915
0.0011	-73.761
0.0012	-73.7305
0.0013	-73.761
0.0014	-73.7305
0.0015	-73.7305
0.0016	-73.761
0.0017	-73.6694
0.0018	-73.761
0.0019	-73.7
0.002	-73.761
0.0021	-73.822
0.0022	-73.7915
0.0023	-73.7305
0.0024	-73.7915
0.0025	-73.761
0.0026	-73.761
0.0027	-73.822
0.0028	-73.761
0.0029	-73.7915
0.003	-73.8525
0.0031	-73.822
0.0032	-73.822
0.0033	-73.7915
0.0034	-73.761
0.0035	-73.7915
0.0036	-73.761
0.0037	-73.761
0.0038	-73.7305
0.0039	-73.822
0.004	-73.761
0.0041	-73.761
0.0042	-73.761
0.0043	-73.7915
0.0044	-73.761
0.0045	-73.7305
0.0046	-73.761
0.0047	-73.7
0.0048	-73.7
0.0049	-73.761
0.005	-73.7915
0.0051	-73.7305
0.0052	-73.7915
0.0053	-73.7915
0.0054	-73.7915
0.0055	-73.7305
0.0056	-73.822
0.0057	-73.822
0.0058	-73.822
0.0059	-73.8831
0.006	-73.8525
0.0061	-73.8831
0.0062	-73.9136
0.0063	-73.8831
0.0064	-73.9441
0.0065	-73.9136
0.0066	-73.8831
0.0067	-73.9136
0.0068	-73.9441
0.0069	-73.8831
0.007	-73.8831
0.0071	-73.9136
0.0072	-73.8525
0.0073	-73.9441
0.0074	-73.9746
0.0075	-73.9136
0.0076	-73.9136
0.0077	-73.9136
0.0078	-73.8525
0.0079	-73.9136
0.008	-73.8831
0.0081	-73.8525
0.0082	-73.8831
0.0083	-73.8525
0.0084	-73.822
0.0085	-73.9136
0.0086	-73.9136
0.0087	-73.8831
0.0088	-73.8831
0.0089	-73.822
0.009	-73.9136
0.0091	-73.9136
0.0092	-73.8831
0.0093	-73.8831
0.0094	-73.9136
0.0095	-73.8831
0.0096	-73.8525
0.0097	-73.8831
0.0098	-73.8831
0.0099	-73.8831
0.01	-73.9441
0.0101	-73.8525
0.0102	-73.8831
0.0103	-73.9136
0.0104	-73.8831
0.0105	-73.9441
0.0106	-73.9441
0.0107	-73.9441
0.0108	-73.9441
0.0109	-73.9441
0.011	-73.9441
0.0111	-73.9746
0.0112	-73.9441
0.0113	-73.9441
0.0114	-73.9441
0.0115	-73.9136
0.0116	-73.8831
0.0117	-73.9746
0.0118	-73.9136
0.0119	-73.9441
0.012	-74.0051
0.0121	-74.0051
0.0122	-74.0356
0.0123	-74.0051
0.0124	-74.0356
0.0125	-74.0356
0.0126	-74.0967
0.0127	-74.0662
0.0128	-74.0967
0.0129	-74.1272
0.013	-74.0662
0.0131	-74.0662
0.0132	-74.0662
0.0133	-74.0356
0.0134	-74.0662
0.0135	-74.0967
0.0136	-74.0662
0.0137	-74.0356
0.0138	-74.0356
0.0139	-74.0051
0.014	-74.0662
0.0141	-73.9746
0.0142	-74.0051
0.0143	-74.0356
0.0144	-74.0051
0.0145	-74.0051
0.0146	-74.0051
0.0147	-74.0662
0.0148	-74.0051
0.0149	-74.0662
0.015	-74.0356
0.0151	-74.0356
0.0152	-74.0662
0.0153	-74.0356
0.0154	-74.0051
0.0155	-74.0356
0.0156	-74.0051
0.0157	-74.0051
0.0158	-74.0662
0.0159	-74.0662
0.016	-74.0051
0.0161	-73.9746
0.0162	-73.9441
0.0163	-74.0051
0.0164	-74.0051
0.0165	-73.9441
0.0166	-73.9441
0.0167	-74.0051
0.0168	-73.9746
0.0169	-73.9441
0.017	-73.9746
0.0171	-73.8831
0.0172	-73.8831
0.0173	-73.9441
0.0174	-73.9441
0.0175	-73.9441
0.0176	-73.9441
0.0177	-73.9441
0.0178	-73.9746
0.0179	-73.9746
0.018	-73.9746
0.0181	-73.9441
0.0182	-73.9441
0.0183	-73.9441
0.0184	-73.9441
0.0185	-73.9441
0.0186	-73.9136
0.0187	-73.9746
0.0188	-73.9441
0.0189	-73.9136
0.019	-73.9441
0.0191	-73.9746
0.0192	-73.9441
0.0193	-73.9441
0.0194	-73.9441
0.0195	-73.9136
0.0196	-73.9746
0.0197	-73.9746
0.0198	-74.0051
0.0199	-74.0356
0.02	-74.0051
0.0201	-74.0051
0.0202	-74.0051
0.0203	-74.0051
0.0204	-73.9746
0.0205	-73.9746
0.0206	-73.9746
0.0207	-73.9441
0.0208	-74.0051
0.0209	-73.9136
0.021	-73.9136
0.0211	-73.9746
0.0212	-73.9441
0.0213	-73.9441
0.0214	-73.9441
0.0215	-73.9441
0.0216	-73.9746
0.0217	-73.9746
0.0218	-73.9746
0.0219	-73.9746
0.022	-73.9441
0.0221	-73.9746
0.0222	-73.9746
0.0223	-73.9746
0.0224	-73.9746
0.0225	-74.0051
0.0226	-73.9746
0.0227	-73.9746
0.0228	-74.0356
0.0229	-74.0356
0.023	-74.0051
0.0231	-74.0967
0.0232	-74.0051
0.0233	-74.0051
0.0234	-74.0662
0.0235	-74.0051
0.0236	-74.0051
0.0237	-74.0662
0.0238	-74.0051
0.0239	-74.0051
0.024	-74.0356
0.0241	-74.0356
0.0242	-74.0662
0.0243	-74.0356
0.0244	-74.0662
0.0245	-74.0967
0.0246	-74.0967
0.0247	-74.0662
0.0248	-74.0356
0.0249	-74.0662
0.025	-74.0356
0.0251	-74.0967
0.0252	-74.0662
0.0253	-74.0356
0.0254	-74.1272
0.0255	-74.0967
0.0256	-74.0967
0.0257	-74.0967
0.0258	-74.0356
0.0259	-74.0662
0.026	-74.1272
0.0261	-74.0967
0.0262	-74.0662
0.0263	-74.0967
0.0264	-73.9746
0.0265	-74.0662
0.0266	-74.0967
0.0267	-74.0967
0.0268	-74.0662
0.0269	-74.1272
0.027	-74.0967
0.0271	-74.0662
0.0272	-74.0662
0.0273	-74.0967
0.0274	-74.0662
0.0275	-74.0967
0.0276	-74.0356
0.0277	-74.0662
0.0278	-74.0356
0.0279	-74.0051
0.028	-74.0051
0.0281	-74.0356
0.0282	-74.0662
0.0283	-74.0662
0.0284	-74.0662
0.0285	-74.0051
0.0286	-73.9746
0.0287	-74.0051
0.0288	-73.9746
0.0289	-74.0356
0.029	-74.0051
0.0291	-74.0051
0.0292	-74.0662
0.0293	-74.0356
0.0294	-74.0051
0.0295	-74.0662
0.0296	-74.0356
0.0297	-74.0356
0.0298	-74.0967
0.0299	-74.0662
0.03	-73.9746
0.0301	-74.0662
0.0302	-74.0051
0.0303	-74.0356
0.0304	-74.0662
0.0305	-74.0051
0.0306	-73.9746
0.0307	-74.0051
0.0308	-73.9746
0.0309	-73.9746
0.031	-73.9441
0.0311	-73.9441
0.0312	-73.9441
0.0313	-73.9441
0.0314	-73.8831
0.0315	-73.9441
0.0316	-73.8831
0.0317	-73.8525
0.0318	-73.9136
0.0319	-73.9136
0.032	-73.8525
0.0321	-73.9136
0.0322	-73.9136
0.0323	-73.9441
0.0324	-73.9746
0.0325	-73.9441
0.0326	-73.9136
0.0327	-73.9441
0.0328	-73.9441
0.0329	-73.9136
0.033	-74.0051
0.0331	-73.9441
0.0332	-73.9136
0.0333	-73.9441
0.0334	-73.9136
0.0335	-73.9746
0.0336	-73.9746
0.0337	-73.8831
0.0338	-73.9136
0.0339	-73.9746
0.034	-73.9136
0.0341	-73.9136
0.0342	-73.9136
0.0343	-73.8831
0.0344	-73.9136
0.0345	-73.9136
0.0346	-73.9136
0.0347	-73.9136
0.0348	-73.8831
0.0349	-73.8831
0.035	-73.8831
0.0351	-73.8525
0.0352	-73.8831
0.0353	-73.9136
0.0354	-73.8525
0.0355	-73.8831
0.0356	-73.9136
0.0357	-73.8831
0.0358	-73.8831
0.0359	-73.9136
0.036	-73.8831
0.0361	-73.8831
0.0362	-73.9441
0.0363	-73.8525
0.0364	-73.7915
0.0365	-73.8525
0.0366	-73.8525
0.0367	-73.822
0.0368	-73.8831
0.0369	-73.822
0.037	-73.8831
0.0371	-73.8831
0.0372	-73.822
0.0373	-73.822
0.0374	-73.822
0.0375	-73.7915
0.0376	-73.7915
0.0377	-73.822
0.0378	-73.7915
0.0379	-73.761
0.038	-73.822
0.0381	-73.761
0.0382	-73.822
0.0383	-73.822
0.0384	-73.822
0.0385	-73.8525
0.0386	-73.8831
0.0387	-73.8525
0.0388	-73.8525
0.0389	-73.8831
0.039	-73.8831
0.0391	-73.9136
0.0392	-73.8831
0.0393	-73.8831
0.0394	-73.9441
0.0395	-73.9136
0.0396	-73.8831
0.0397	-73.9136
0.0398	-73.8831
0.0399	-73.8831
0.04	-73.9441
0.0401	-73.8831
0.0402	-73.8525
0.0403	-73.9441
0.0404	-73.8831
0.0405	-73.8831
0.0406	-73.9441
0.0407	-73.8831
0.0408	-73.8831
0.0409	-73.9441
0.041	-73.8831
0.0411	-73.8831
0.0412	-73.9136
0.0413	-73.822
0.0414	-73.9136
0.0415	-73.9441
0.0416	-73.8525
0.0417	-73.9441
0.0418	-73.9136
0.0419	-73.9136
0.042	-73.9746
0.0421	-73.9136
0.0422	-73.9136
0.0423	-73.9441
0.0424	-73.9136
0.0425	-73.9136
0.0426	-74.0051
0.0427	-73.9136
0.0428	-73.9136
0.0429	-73.9441
0.043	-73.8525
0.0431	-73.9136
0.0432	-73.9746
0.0433	-73.9746
0.0434	-73.9746
0.0435	-74.0051
0.0436	-73.9746
0.0437	-73.9441
0.0438	-74.0356
0.0439	-73.9136
0.044	-73.9441
0.0441	-73.9441
0.0442	-73.9441
0.0443	-73.9441
0.0444	-73.9441
0.0445	-73.8831
0.0446	-73.9441
0.0447	-73.9136
0.0448	-73.9441
0.0449	-73.9441
0.045	-73.8831
0.0451	-73.8831
0.0452	-73.9746
0.0453	-73.9441
0.0454	-73.9441
0.0455	-73.9746
0.0456	-73.9746
0.0457	-73.9441
0.0458	-74.0356
0.0459	-74.0051
0.046	-74.0051
0.0461	-74.0356
0.0462	-74.0662
0.0463	-74.0356
0.0464	-74.0662
0.0465	-73.9746
0.0466	-73.9746
0.0467	-74.0662
0.0468	-74.0662
0.0469	-73.9746
0.047	-74.0051
0.0471	-73.9441
0.0472	-73.9441
0.0473	-74.0051
0.0474	-74.0051
0.0475	-73.9746
0.0476	-73.9441
0.0477	-73.9441
0.0478	-73.9441
0.0479	-73.9746
0.048	-73.9441
0.0481	-73.9441
0.0482	-73.9746
0.0483	-73.9441
0.0484	-73.9136
0.0485	-73.9136
0.0486	-73.9441
0.0487	-73.9746
0.0488	-73.9441
0.0489	-73.9441
0.049	-74.0051
0.0491	-74.0051
0.0492	-73.9441
0.0493	-73.9441
0.0494	-73.9441
0.0495	-73.9136
0.0496	-73.9746
0.0497	-73.9136
0.0498	-73.9136
0.0499	-74.0356
0.05	-73.9441
0.0501	-73.8831
0.0502	-73.9441
0.0503	-73.8831
0.0504	-73.8525
0.0505	-73.9746
0.0506	-73.9136
0.0507	-73.8831
0.0508	-73.9136
0.0509	-73.9441
0.051	-73.9441
0.0511	-73.9136
0.0512	-73.8831
0.0513	-73.8525
0.0514	-73.8831
0.0515	-73.8831
0.0516	-73.8831
0.0517	-73.9136
0.0518	-73.8831
0.0519	-73.8525
0.052	-73.9136
0.0521	-73.8525
0.0522	-73.9136
0.0523	-73.8525
0.0524	-73.8525
0.0525	-73.8831
0.0526	-73.8525
0.0527	-73.822
0.0528	-73.9136
0.0529	-73.8831
0.053	-73.8525
0.0531	-73.8831
0.0532	-73.8525
0.0533	-73.822
0.0534	-73.8831
0.0535	-73.8831
0.0536	-73.8525
0.0537	-73.8831
0.0538	-73.8525
0.0539	-73.822
0.054	-73.8831
0.0541	-73.8525
0.0542	-73.8525
0.0543	-73.9136
0.0544	-73.9136
0.0545	-73.822
0.0546	-73.8831
0.0547	-73.8831
0.0548	-73.8525
0.0549	-73.822
0.055	-73.8525
0.0551	-73.8525
0.0552	-73.9136
0.0553	-73.8525
0.0554	-73.8831
0.0555	-73.8831
0.0556	-73.8831
0.0557	-73.9136
0.0558	-73.9441
0.0559	-73.9136
0.056	-73.9441
0.0561	-73.9441
0.0562	-73.9441
0.0563	-73.9746
0.0564	-73.9441
0.0565	-73.9136
0.0566	-73.9746
0.0567	-73.9441
0.0568	-73.9746
0.0569	-73.9441
0.057	-73.8831
0.0571	-73.8831
0.0572	-73.9441
0.0573	-73.9136
0.0574	-73.9441
0.0575	-73.9441
0.0576	-73.9136
0.0577	-73.8831
0.0578	-73.9746
0.0579	-73.9441
0.058	-73.9441
0.0581	-73.9746
0.0582	-73.8831
0.0583	-73.9441
0.0584	-74.0051
0.0585	-73.9441
0.0586	-73.9746
0.0587	-73.9746
0.0588	-73.9746
0.0589	-73.9441
0.059	-73.9746
0.0591	-73.9441
0.0592	-73.9746
0.0593	-73.9136
0.0594	-73.9441
0.0595	-73.9441
0.0596	-73.8831
0.0597	-73.9136
0.0598	-73.9441
0.0599	-73.8831
0.06	-73.8831
0.0601	-73.9441
0.0602	-73.9746
0.0603	-73.9441
0.0604	-73.9746
0.0605	-73.9441
0.0606	-73.9441
0.0607	-73.9746
0.0608	-73.9136
0.0609	-73.9441
0.061	-73.9441
0.0611	-73.9136
0.0612	-73.9136
0.0613	-73.9136
0.0614	-73.9136
0.0615	-73.9136
0.0616	-73.9136
0.0617	-73.9136
0.0618	-73.9136
0.0619	-73.9441
0.062	-73.9746
0.0621	-73.9441
0.0622	-73.9441
0.0623	-73.9136
0.0624	-73.9746
0.0625	-73.9136
0.0626	-73.9136
0.0627	-73.9746
0.0628	-73.9136
0.0629	-73.9136
0.063	-74.0051
0.0631	-73.9441
0.0632	-73.9441
0.0633	-74.0051
0.0634	-73.9441
0.0635	-73.9136
0.0636	-73.9746
0.0637	-73.8831
0.0638	-73.9136
0.0639	-73.9746
0.064	-73.9136
0.0641	-73.822
0.0642	-73.9441
0.0643	-73.9441
0.0644	-73.8831
0.0645	-73.9441
0.0646	-73.9136
0.0647	-73.9136
0.0648	-73.9441
0.0649	-73.8525
0.065	-73.8831
0.0651	-73.9136
0.0652	-73.8525
0.0653	-73.8831
0.0654	-73.9746
0.0655	-73.9441
0.0656	-73.9746
0.0657	-73.8831
0.0658	-73.9136
0.0659	-73.9746
0.066	-73.9441
0.0661	-73.9136
0.0662	-73.9441
0.0663	-73.9441
0.0664	-73.9136
0.0665	-73.9136
0.0666	-73.9441
0.0667	-73.8831
0.0668	-74.0356
0.0669	-73.9136
0.067	-73.8525
0.0671	-73.9746
0.0672	-73.9136
0.0673	-73.9441
0.0674	-74.0051
0.0675	-73.9136
0.0676	-73.9441
0.0677	-73.9746
0.0678	-73.9746
0.0679	-73.9136
0.068	-73.9441
0.0681	-73.9441
0.0682	-73.9441
0.0683	-73.9746
0.0684	-73.9441
0.0685	-73.9746
0.0686	-73.8831
0.0687	-73.8831
0.0688	-73.8831
0.0689	-73.8831
0.069	-73.8525
0.0691	-73.8831
0.0692	-73.8831
0.0693	-73.8525
0.0694	-73.8525
0.0695	-73.7915
0.0696	-73.7915
0.0697	-73.8831
0.0698	-73.822
0.0699	-73.7915
0.07	-73.9441
0.0701	-73.7915
0.0702	-73.822
0.0703	-73.8831
0.0704	-73.8525
0.0705	-73.761
0.0706	-73.8525
0.0707	-73.7915
0.0708	-73.822
0.0709	-73.822
0.071	-73.7915
0.0711	-73.822
0.0712	-73.822
0.0713	-73.822
0.0714	-73.822
0.0715	-73.7915
0.0716	-73.7915
0.0717	-73.7915
0.0718	-73.822
0.0719	-73.761
0.072	-73.761
0.0721	-73.822
0.0722	-73.822
0.0723	-73.8831
0.0724	-73.8525
0.0725	-73.8525
0.0726	-73.8831
0.0727	-73.8831
0.0728	-73.8831
0.0729	-73.9136
0.073	-73.8831
0.0731	-73.8525
0.0732	-73.9136
0.0733	-73.8525
0.0734	-73.8831
0.0735	-73.8525
0.0736	-73.822
0.0737	-73.8525
0.0738	-73.8831
0.0739	-73.7915
0.074	-73.822
0.0741	-73.822
0.0742	-73.7915
0.0743	-73.822
0.0744	-73.8525
0.0745	-73.761
0.0746	-73.8525
0.0747	-73.8525
0.0748	-73.7915
0.0749	-73.7915
0.075	-73.822
0.0751	-73.7915
0.0752	-73.822
0.0753	-73.8525
0.0754	-73.822
0.0755	-73.8525
0.0756	-73.8831
0.0757	-73.8831
0.0758	-73.8525
0.0759	-73.7915
0.076	-73.822
0.0761	-73.9136
0.0762	-73.8525
0.0763	-73.8525
0.0764	-73.9136
0.0765	-73.9136
0.0766	-73.8831
0.0767	-73.8831
0.0768	-73.8525
0.0769	-73.8831
0.077	-73.9746
0.0771	-73.9441
0.0772	-73.9136
0.0773	-73.9136
0.0774	-73.9136
0.0775	-73.8831
0.0776	-73.9441
0.0777	-73.9136
0.0778	-73.8831
0.0779	-73.8831
0.078	-73.8525
0.0781	-73.8525
0.0782	-73.9136
0.0783	-73.8831
0.0784	-73.9136
0.0785	-73.9441
0.0786	-73.8831
0.0787	-73.9136
0.0788	-73.9441
0.0789	-73.9441
0.079	-73.9746
0.0791	-73.9746
0.0792	-73.9441
0.0793	-74.0051
0.0794	-73.9746
0.0795	-73.9441
0.0796	-74.0051
0.0797	-73.9746
0.0798	-73.9441
0.0799	-74.0051
0.08	-73.8831
0.0801	-73.9136
0.0802	-73.9441
0.0803	-73.9441
0.0804	-73.9136
0.0805	-73.9136
0.0806	-73.8831
0.0807	-73.8831
0.0808	-73.9136
0.0809	-73.9441
0.081	-73.9441
0.0811	-73.9746
0.0812	-73.9136
0.0813	-73.9136
0.0814	-73.9746
0.0815	-73.9136
0.0816	-73.8525
0.0817	-73.9136
0.0818	-73.8831
0.0819	-73.9441
0.082	-73.9441
0.0821	-73.8831
0.0822	-73.9136
0.0823	-73.9441
0.0824	-73.9136
0.0825	-73.8831
0.0826	-73.9136
0.0827	-73.9136
0.0828	-73.9136
0.0829	-73.9746
0.083	-73.9136
0.0831	-73.9441
0.0832	-73.9136
0.0833	-73.8831
0.0834	-73.9136
0.0835	-73.8831
0.0836	-73.8831
0.0837	-73.8831
0.0838	-73.8831
0.0839	-73.822
0.084	-73.8831
0.0841	-73.8831
0.0842	-73.822
0.0843	-73.8525
0.0844	-73.8525
0.0845	-73.822
0.0846	-73.822
0.0847	-73.8831
0.0848	-73.8831
0.0849	-73.8525
0.085	-73.822
0.0851	-73.822
0.0852	-73.822
0.0853	-73.7915
0.0854	-73.7915
0.0855	-73.822
0.0856	-73.761
0.0857	-73.8525
0.0858	-73.7915
0.0859	-73.761
0.086	-73.7915
0.0861	-73.8831
0.0862	-73.8525
0.0863	-73.8525
0.0864	-73.822
0.0865	-73.822
0.0866	-73.8831
0.0867	-73.8525
0.0868	-73.822
0.0869	-73.8831
0.087	-73.7915
0.0871	-73.822
0.0872	-73.9136
0.0873	-73.7915
0.0874	-73.822
0.0875	-73.822
0.0876	-73.761
0.0877	-73.761
0.0878	-73.8525
0.0879	-73.822
0.088	-73.761
0.0881	-73.8525
0.0882	-73.7915
0.0883	-73.761
0.0884	-73.7915
0.0885	-73.822
0.0886	-73.7915
0.0887	-73.822
0.0888	-73.822
0.0889	-73.7915
0.089	-73.8831
0.0891	-73.7915
0.0892	-73.761
0.0893	-73.7915
0.0894	-73.7915
0.0895	-73.822
0.0896	-73.761
0.0897	-73.7915
0.0898	-73.8525
0.0899	-73.822
0.09	-73.8525
0.0901	-73.822
0.0902	-73.7915
0.0903	-73.7915
0.0904	-73.8525
0.0905	-73.822
0.0906	-73.822
0.0907	-73.8831
0.0908	-73.761
0.0909	-73.8525
0.091	-73.822
0.0911	-73.7915
0.0912	-73.7915
0.0913	-73.8831
0.0914	-73.7915
0.0915	-73.7915
0.0916	-73.822
0.0917	-73.822
0.0918	-73.7915
0.0919	-73.7915
0.092	-73.761
0.0921	-73.7915
0.0922	-73.8831
0.0923	-73.8525
0.0924	-73.822
0.0925	-73.7915
0.0926	-73.7915
0.0927	-73.761
0.0928	-73.7915
0.0929	-73.7305
0.093	-73.7
0.0931	-73.7305
0.0932	-73.7305
0.0933	-73.761
0.0934	-73.7305
0.0935	-73.7915
0.0936	-73.7915
0.0937	-73.7915
0.0938	-73.7915
0.0939	-73.822
0.094	-73.761
0.0941	-73.7305
0.0942	-73.7915
0.0943	-73.761
0.0944	-73.7305
0.0945	-73.761
0.0946	-73.6694
0.0947	-73.7305
0.0948	-73.7915
0.0949	-73.761
0.095	-73.7
0.0951	-73.761
0.0952	-73.7
0.0953	-73.761
0.0954	-73.761
0.0955	-73.7
0.0956	-73.7
0.0957	-73.822
0.0958	-73.761
0.0959	-73.822
0.096	-73.761
0.0961	-73.761
0.0962	-73.822
0.0963	-73.822
0.0964	-73.7915
0.0965	-73.822
0.0966	-73.822
0.0967	-73.822
0.0968	-73.822
0.0969	-73.761
0.097	-73.7915
0.0971	-73.7915
0.0972	-73.761
0.0973	-73.7305
0.0974	-73.7305
0.0975	-73.6694
0.0976	-73.7
0.0977	-73.7915
0.0978	-73.7
0.0979	-73.7
0.098	-73.761
0.0981	-73.6694
0.0982	-73.6694
0.0983	-73.761
0.0984	-73.7305
0.0985	-73.7
0.0986	-73.8525
0.0987	-73.761
0.0988	-73.761
0.0989	-73.822
0.099	-73.7915
0.0991	-73.761
0.0992	-73.7915
0.0993	-73.7305
0.0994	-73.761
0.0995	-73.761
0.0996	-73.761
0.0997	-73.7
0.0998	-73.7305
0.0999	-73.7305
0.1	-73.761
0.1001	-73.7
0.1002	-73.6389
0.1003	-73.6389
0.1004	-73.7
0.1005	-73.7
0.1006	-73.7305
0.1007	-73.6389
0.1008	-73.6389
0.1009	-73.7
0.101	-73.6694
0.1011	-73.7
0.1012	-73.7305
0.1013	-73.6389
0.1014	-73.6694
0.1015	-73.7305
0.1016	-73.6694
0.1017	-73.6389
0.1018	-73.7305
0.1019	-73.6389
0.102	-73.6389
0.1021	-73.7
0.1022	-73.7
0.1023	-73.7
0.1024	-73.7305
0.1025	-73.7
0.1026	-73.6694
0.1027	-73.7
0.1028	-73.6694
0.1029	-73.7
0.103	-73.7305
0.1031	-73.7305
0.1032	-73.7
0.1033	-73.7915
0.1034	-73.7
0.1035	-73.7305
0.1036	-73.7305
0.1037	-73.7
0.1038	-73.7305
0.1039	-73.7915
0.104	-73.7305
0.1041	-73.761
0.1042	-73.7305
0.1043	-73.7305
0.1044	-73.7305
0.1045	-73.6694
0.1046	-73.6389
0.1047	-73.7
0.1048	-73.6694
0.1049	-73.6389
0.105	-73.7
0.1051	-73.6084
0.1052	-73.6694
0.1053	-73.761
0.1054	-73.7
0.1055	-73.6694
0.1056	-73.7305
0.1057	-73.6694
0.1058	-73.6694
0.1059	-73.7
0.106	-73.7
0.1061	-73.7305
0.1062	-73.7
0.1063	-73.7305
0.1064	-73.761
0.1065	-73.7305
0.1066	-73.7305
0.1067	-73.761
0.1068	-73.7
0.1069	-73.7
0.107	-73.761
0.1071	-73.7
0.1072	-73.7
0.1073	-73.7
0.1074	-73.7
0.1075	-73.6694
0.1076	-73.7305
0.1077	-73.7
0.1078	-73.7
0.1079	-73.6694
0.108	-73.7
0.1081	-73.6694
0.1082	-73.761
0.1083	-73.7
0.1084	-73.7
0.1085	-73.761
0.1086	-73.7305
0.1087	-73.7915
0.1088	-73.761
0.1089	-73.7
0.109	-73.6694
0.1091	-73.761
0.1092	-73.761
0.1093	-73.761
0.1094	-73.7305
0.1095	-73.7
0.1096	-73.761
0.1097	-73.761
0.1098	-73.761
0.1099	-73.761
0.11	-73.761
0.1101	-73.7305
0.1102	-73.7915
0.1103	-73.761
0.1104	-73.7305
0.1105	-73.761
0.1106	-73.7305
0.1107	-73.7
0.1108	-73.7305
0.1109	-73.7305
0.111	-73.6694
0.1111	-73.761
0.1112	-73.7
0.1113	-73.7
0.1114	-73.6694
0.1115	-73.7
0.1116	-73.6694
0.1117	-73.7305
0.1118	-73.7
0.1119	-73.6694
0.112	-73.7305
0.1121	-73.7
0.1122	-73.7
0.1123	-73.7305
0.1124	-73.7
0.1125	-73.7
0.1126	-73.7915
0.1127	-73.7
0.1128	-73.761
0.1129	-73.761
0.113	-73.761
0.1131	-73.761
0.1132	-73.7915
0.1133	-73.761
0.1134	-73.7305
0.1135	-73.761
0.1136	-73.7305
0.1137	-73.7305
0.1138	-73.761
0.1139	-73.7305
0.114	-73.761
0.1141	-73.761
0.1142	-73.761
0.1143	-73.761
0.1144	-73.7305
0.1145	-73.7305
0.1146	-73.7
0.1147	-73.7305
0.1148	-73.761
0.1149	-73.761
0.115	-73.7305
0.1151	-73.7305
0.1152	-73.761
0.1153	-73.7
0.1154	-73.761
0.1155	-73.822
0.1156	-73.761
0.1157	-72.9065
0.1158	-72.6624
0.1159	-72.3877
0.116	-72.1741
0.1161	-71.991
0.1162	-71.7773
0.1163	-71.5637
0.1164	-71.4417
0.1165	-71.228
0.1166	-71.1365
0.1167	-70.9839
0.1168	-70.8313
0.1169	-70.8008
0.117	-70.6482
0.1171	-70.5261
0.1172	-70.4651
0.1173	-70.343
0.1174	-70.1904
0.1175	-70.1599
0.1176	-70.0073
0.1177	-69.9463
0.1178	-69.8853
0.1179	-69.7021
0.118	-69.6106
0.1181	-69.5801
0.1182	-69.397
0.1183	-69.3359
0.1184	-69.3054
0.1185	-69.2139
0.1186	-69.1528
0.1187	-69.1223
0.1188	-69.0308
0.1189	-68.9087
0.119	-68.8477
0.1191	-68.7866
0.1192	-68.7256
